%%  100.00000   0.00000    0   0.20000
% LAB  survey ------------------
% wanted position:  l, b, RA, DEC, and interpolated  NH
%100.00 ;   0.00 ; 330.00 ;  55.05 ;  0.760E+22
% nearest position: l, b, RA, DEC, and observed NH
%100.00 ;   0.00 ; 330.00 ;  55.05 ;  0.760E+22
% GASS III survey --------------
% NH - median within 6 arcmin radius   0.00    
% NH - mean within specified beam      0.00    
% EBHIS survey -----------------
% NH  within specified beam           0.775E+22
%%EBHIS   621  datapoints: v_lsr [km/s] and T_B [K]
    -399.25     0.027
    -397.96    -0.057
    -396.68    -0.034
    -395.39     0.111
    -394.10     0.005
    -392.81     0.019
    -391.52     0.035
    -390.23     0.067
    -388.95     0.071
    -387.66    -0.053
    -386.37     0.009
    -385.08    -0.054
    -383.79    -0.021
    -382.50    -0.091
    -381.22     0.035
    -379.93     0.001
    -378.64    -0.056
    -377.35    -0.036
    -376.06     0.055
    -374.78     0.071
    -373.49    -0.028
    -372.20     0.059
    -370.91     0.175
    -369.62     0.030
    -368.33     0.175
    -367.05     0.077
    -365.76     0.023
    -364.47    -0.020
    -363.18    -0.047
    -361.89    -0.056
    -360.60     0.016
    -359.32     0.070
    -358.03     0.049
    -356.74     0.037
    -355.45     0.013
    -354.16     0.024
    -352.88     0.088
    -351.59     0.109
    -350.30    -0.039
    -349.01    -0.031
    -347.72    -0.044
    -346.43    -0.001
    -345.15    -0.118
    -343.86     0.105
    -342.57     0.043
    -341.28    -0.057
    -339.99    -0.088
    -338.70     0.024
    -337.42    -0.073
    -336.13    -0.038
    -334.84     0.023
    -333.55    -0.080
    -332.26    -0.116
    -330.98    -0.072
    -329.69     0.013
    -328.40     0.021
    -327.11    -0.045
    -325.82     0.000
    -324.53    -0.004
    -323.25     0.003
    -321.96     0.021
    -320.67    -0.055
    -319.38     0.020
    -318.09     0.043
    -316.80    -0.038
    -315.52     0.015
    -314.23     0.046
    -312.94    -0.042
    -311.65    -0.009
    -310.36     0.019
    -309.08     0.006
    -307.79    -0.076
    -306.50    -0.041
    -305.21    -0.003
    -303.92     0.065
    -302.63    -0.019
    -301.35    -0.013
    -300.06    -0.038
    -298.77    -0.078
    -297.48     0.028
    -296.19    -0.075
    -294.90    -0.084
    -293.62     0.008
    -292.33     0.002
    -291.04    -0.080
    -289.75     0.066
    -288.46     0.017
    -287.18    -0.042
    -285.89     0.027
    -284.60    -0.020
    -283.31     0.029
    -282.02     0.138
    -280.73    -0.013
    -279.45    -0.025
    -278.16    -0.003
    -276.87     0.049
    -275.58    -0.027
    -274.29    -0.058
    -273.00    -0.033
    -271.72     0.114
    -270.43    -0.022
    -269.14    -0.012
    -267.85    -0.021
    -266.56    -0.076
    -265.28    -0.097
    -263.99    -0.080
    -262.70    -0.008
    -261.41     0.063
    -260.12    -0.001
    -258.83    -0.095
    -257.55    -0.063
    -256.26    -0.074
    -254.97     0.048
    -253.68    -0.045
    -252.39    -0.011
    -251.10     0.051
    -249.82    -0.011
    -248.53    -0.089
    -247.24    -0.050
    -245.95    -0.042
    -244.66    -0.036
    -243.38     0.014
    -242.09     0.028
    -240.80    -0.003
    -239.51     0.004
    -238.22     0.138
    -236.93     0.073
    -235.65     0.085
    -234.36     0.102
    -233.07     0.015
    -231.78     0.057
    -230.49    -0.028
    -229.20    -0.024
    -227.92    -0.031
    -226.63    -0.100
    -225.34     0.004
    -224.05     0.038
    -222.76     0.058
    -221.48     0.009
    -220.19    -0.024
    -218.90    -0.057
    -217.61    -0.004
    -216.32    -0.056
    -215.03     0.027
    -213.75     0.054
    -212.46     0.088
    -211.17     0.063
    -209.88     0.025
    -208.59    -0.131
    -207.30    -0.055
    -206.02    -0.091
    -204.73     0.008
    -203.44     0.048
    -202.15     0.100
    -200.86    -0.010
    -199.58     0.009
    -198.29     0.031
    -197.00    -0.024
    -195.71     0.078
    -194.42     0.118
    -193.13     0.013
    -191.85    -0.018
    -190.56    -0.026
    -189.27    -0.039
    -187.98    -0.010
    -186.69    -0.080
    -185.40     0.015
    -184.12    -0.016
    -182.83    -0.125
    -181.54    -0.045
    -180.25     0.021
    -178.96    -0.049
    -177.68    -0.024
    -176.39     0.045
    -175.10    -0.013
    -173.81     0.022
    -172.52     0.062
    -171.23     0.055
    -169.95    -0.026
    -168.66    -0.016
    -167.37     0.015
    -166.08    -0.031
    -164.79     0.061
    -163.50    -0.044
    -162.22     0.064
    -160.93     0.054
    -159.64     0.080
    -158.35     0.068
    -157.06     0.026
    -155.78     0.115
    -154.49     0.155
    -153.20     0.115
    -151.91     0.124
    -150.62     0.179
    -149.33     0.042
    -148.05     0.023
    -146.76     0.030
    -145.47     0.111
    -144.18     0.110
    -142.89     0.168
    -141.60     0.203
    -140.32     0.147
    -139.03     0.162
    -137.74     0.230
    -136.45     0.243
    -135.16     0.189
    -133.88     0.270
    -132.59     0.265
    -131.30     0.310
    -130.01     0.420
    -128.72     0.479
    -127.43     0.632
    -126.15     0.737
    -124.86     0.801
    -123.57     0.934
    -122.28     1.181
    -120.99     1.388
    -119.70     1.723
    -118.42     1.981
    -117.13     2.293
    -115.84     2.676
    -114.55     2.974
    -113.26     3.424
    -111.98     3.805
    -110.69     4.214
    -109.40     4.718
    -108.11     5.368
    -106.82     6.284
    -105.53     7.109
    -104.25     7.633
    -102.96     7.879
    -101.67     7.811
    -100.38     7.892
     -99.09     8.022
     -97.80     8.103
     -96.52     8.030
     -95.23     8.069
     -93.94     7.980
     -92.65     7.904
     -91.36     7.406
     -90.08     6.918
     -88.79     6.275
     -87.50     5.785
     -86.21     5.075
     -84.92     4.420
     -83.63     3.901
     -82.35     3.611
     -81.06     3.399
     -79.77     3.391
     -78.48     3.414
     -77.19     3.725
     -75.90     4.007
     -74.62     4.406
     -73.33     5.146
     -72.04     6.229
     -70.75     8.681
     -69.46    12.337
     -68.18    18.902
     -66.89    31.121
     -65.60    46.347
     -64.31    58.653
     -63.02    65.678
     -61.73    68.493
     -60.45    68.728
     -59.16    67.152
     -57.87    65.303
     -56.58    63.333
     -55.29    61.293
     -54.00    61.020
     -52.72    60.829
     -51.43    60.614
     -50.14    60.091
     -48.85    59.255
     -47.56    55.647
     -46.28    49.721
     -44.99    42.860
     -43.70    40.090
     -42.41    40.133
     -41.12    43.593
     -39.83    50.507
     -38.55    52.267
     -37.26    49.046
     -35.97    50.665
     -34.68    57.855
     -33.39    64.342
     -32.10    65.931
     -30.82    59.574
     -29.53    46.873
     -28.24    35.045
     -26.95    28.875
     -25.66    28.328
     -24.38    31.475
     -23.09    37.913
     -21.80    49.900
     -20.51    63.027
     -19.22    65.187
     -17.93    54.507
     -16.65    42.166
     -15.36    32.834
     -14.07    26.051
     -12.78    21.856
     -11.49    21.666
     -10.20    26.331
      -8.92    36.077
      -7.63    46.584
      -6.34    54.145
      -5.05    59.011
      -3.76    62.256
      -2.48    61.376
      -1.19    59.928
       0.10    61.451
       1.39    63.297
       2.68    59.771
       3.97    55.995
       5.25    48.833
       6.54    35.488
       7.83    22.675
       9.12    15.253
      10.41    11.595
      11.70     9.659
      12.98     8.683
      14.27     8.361
      15.56     7.977
      16.85     6.765
      18.14     5.101
      19.42     3.590
      20.71     2.484
      22.00     1.710
      23.29     1.233
      24.58     0.908
      25.87     0.800
      27.15     0.613
      28.44     0.465
      29.73     0.431
      31.02     0.290
      32.31     0.279
      33.60     0.190
      34.88     0.116
      36.17     0.112
      37.46     0.119
      38.75     0.076
      40.04     0.089
      41.32     0.113
      42.61     0.165
      43.90     0.073
      45.19     0.061
      46.48     0.065
      47.77     0.019
      49.05     0.097
      50.34     0.102
      51.63     0.112
      52.92     0.084
      54.21    -0.005
      55.50    -0.061
      56.78    -0.043
      58.07     0.102
      59.36    -0.008
      60.65     0.039
      61.94     0.028
      63.22    -0.064
      64.51    -0.088
      65.80    -0.048
      67.09    -0.041
      68.38     0.002
      69.67    -0.015
      70.95    -0.031
      72.24     0.074
      73.53    -0.007
      74.82    -0.103
      76.11     0.041
      77.40     0.113
      78.68     0.081
      79.97    -0.006
      81.26    -0.028
      82.55     0.028
      83.84     0.008
      85.12     0.006
      86.41     0.003
      87.70     0.074
      88.99     0.015
      90.28     0.007
      91.57    -0.044
      92.85     0.020
      94.14    -0.015
      95.43    -0.048
      96.72    -0.020
      98.01    -0.035
      99.30     0.034
     100.58     0.017
     101.87     0.022
     103.16    -0.039
     104.45    -0.068
     105.74     0.009
     107.02    -0.036
     108.31    -0.007
     109.60    -0.046
     110.89    -0.031
     112.18     0.098
     113.47    -0.026
     114.75     0.104
     116.04     0.012
     117.33     0.001
     118.62     0.102
     119.91     0.045
     121.20     0.086
     122.48     0.108
     123.77     0.023
     125.06     0.015
     126.35     0.104
     127.64     0.066
     128.92     0.031
     130.21     0.073
     131.50     0.003
     132.79     0.017
     134.08     0.048
     135.37    -0.012
     136.65    -0.062
     137.94     0.000
     139.23     0.023
     140.52     0.106
     141.81     0.094
     143.09    -0.011
     144.38     0.011
     145.67     0.024
     146.96     0.042
     148.25    -0.015
     149.54     0.012
     150.82    -0.115
     152.11    -0.067
     153.40    -0.009
     154.69     0.013
     155.98    -0.007
     157.27     0.024
     158.55    -0.021
     159.84    -0.093
     161.13    -0.004
     162.42     0.010
     163.71    -0.005
     164.99     0.022
     166.28     0.072
     167.57     0.178
     168.86     0.057
     170.15    -0.137
     171.44    -0.069
     172.72    -0.019
     174.01     0.041
     175.30    -0.003
     176.59     0.106
     177.88    -0.017
     179.17    -0.063
     180.45     0.073
     181.74     0.045
     183.03     0.114
     184.32     0.007
     185.61    -0.054
     186.89    -0.010
     188.18     0.012
     189.47     0.058
     190.76     0.015
     192.05    -0.081
     193.34     0.020
     194.62    -0.009
     195.91     0.015
     197.20     0.080
     198.49     0.054
     199.78     0.006
     201.07    -0.012
     202.35     0.116
     203.64     0.040
     204.93    -0.131
     206.22    -0.094
     207.51     0.034
     208.79     0.019
     210.08    -0.025
     211.37     0.034
     212.66     0.052
     213.95     0.030
     215.24     0.016
     216.52    -0.072
     217.81     0.013
     219.10     0.032
     220.39    -0.040
     221.68    -0.072
     222.97     0.005
     224.25     0.041
     225.54     0.021
     226.83     0.075
     228.12    -0.085
     229.41     0.034
     230.69     0.020
     231.98     0.018
     233.27     0.001
     234.56     0.004
     235.85    -0.018
     237.14     0.067
     238.42     0.113
     239.71     0.024
     241.00    -0.006
     242.29    -0.022
     243.58     0.043
     244.87     0.022
     246.15     0.107
     247.44     0.060
     248.73    -0.021
     250.02     0.059
     251.31     0.006
     252.59    -0.002
     253.88     0.124
     255.17    -0.023
     256.46    -0.091
     257.75    -0.090
     259.04     0.011
     260.32    -0.012
     261.61     0.018
     262.90     0.110
     264.19    -0.038
     265.48    -0.035
     266.77     0.006
     268.05    -0.020
     269.34    -0.101
     270.63    -0.106
     271.92    -0.041
     273.21     0.004
     274.49    -0.022
     275.78    -0.048
     277.07     0.002
     278.36    -0.073
     279.65     0.010
     280.94     0.071
     282.22     0.004
     283.51    -0.020
     284.80     0.020
     286.09    -0.023
     287.38     0.028
     288.67     0.036
     289.95    -0.020
     291.24     0.024
     292.53     0.004
     293.82    -0.011
     295.11     0.020
     296.39    -0.006
     297.68     0.076
     298.97     0.087
     300.26     0.031
     301.55     0.043
     302.84     0.012
     304.12     0.033
     305.41     0.037
     306.70     0.014
     307.99    -0.046
     309.28     0.031
     310.57     0.058
     311.85     0.051
     313.14    -0.005
     314.43    -0.033
     315.72    -0.055
     317.01     0.039
     318.29     0.072
     319.58     0.020
     320.87     0.055
     322.16    -0.075
     323.45     0.009
     324.74     0.011
     326.02    -0.064
     327.31     0.045
     328.60    -0.107
     329.89     0.027
     331.18     0.001
     332.47    -0.023
     333.75    -0.034
     335.04     0.036
     336.33    -0.116
     337.62    -0.031
     338.91    -0.077
     340.19    -0.084
     341.48     0.022
     342.77     0.040
     344.06    -0.033
     345.35    -0.095
     346.64    -0.032
     347.92     0.050
     349.21     0.076
     350.50     0.063
     351.79     0.044
     353.08    -0.032
     354.37    -0.060
     355.65     0.051
     356.94     0.139
     358.23     0.138
     359.52     0.062
     360.81     0.093
     362.09    -0.049
     363.38    -0.071
     364.67    -0.085
     365.96    -0.119
     367.25     0.026
     368.54    -0.012
     369.82    -0.030
     371.11    -0.056
     372.40    -0.003
     373.69    -0.059
     374.98     0.081
     376.27     0.058
     377.55     0.129
     378.84     0.167
     380.13     0.054
     381.42     0.007
     382.71    -0.079
     383.99    -0.033
     385.28     0.095
     386.57     0.071
     387.86     0.026
     389.15     0.024
     390.44    -0.100
     391.72     0.026
     393.01     0.073
     394.30     0.020
     395.59    -0.068
     396.88    -0.011
     398.17    -0.003
     399.45     0.005
%%GASS      0  datapoints: v_lsr [km/s] and T_B [K]
%%LAB     777  datapoints: v_lsr [km/s] and T_B [K]
    -399.84     0.033
    -398.81    -0.142
    -397.78     0.065
    -396.75     0.051
    -395.72     0.097
    -394.68    -0.028
    -393.65    -0.027
    -392.62     0.104
    -391.59     0.109
    -390.56     0.111
    -389.53     0.100
    -388.50    -0.028
    -387.47     0.106
    -386.44     0.008
    -385.41     0.237
    -384.38    -0.135
    -383.35    -0.180
    -382.32     0.031
    -381.29     0.055
    -380.26    -0.156
    -379.23    -0.185
    -378.20    -0.215
    -377.17     0.026
    -376.14    -0.046
    -375.10    -0.014
    -374.07     0.042
    -373.04    -0.081
    -372.01    -0.023
    -370.98     0.001
    -369.95     0.043
    -368.92    -0.050
    -367.89     0.024
    -366.86     0.063
    -365.83    -0.092
    -364.80     0.049
    -363.77     0.001
    -362.74     0.220
    -361.71    -0.040
    -360.68    -0.103
    -359.65    -0.072
    -358.62    -0.076
    -357.59    -0.080
    -356.56    -0.101
    -355.53    -0.027
    -354.49     0.089
    -353.46    -0.096
    -352.43    -0.009
    -351.40    -0.101
    -350.37     0.171
    -349.34    -0.019
    -348.31    -0.061
    -347.28    -0.054
    -346.25     0.131
    -345.22    -0.075
    -344.19     0.009
    -343.16     0.109
    -342.13     0.009
    -341.10    -0.099
    -340.07     0.005
    -339.04    -0.006
    -338.01    -0.090
    -336.98    -0.103
    -335.95     0.177
    -334.92    -0.016
    -333.88     0.034
    -332.85    -0.002
    -331.82    -0.064
    -330.79     0.036
    -329.76     0.024
    -328.73    -0.105
    -327.70     0.188
    -326.67    -0.043
    -325.64    -0.018
    -324.61    -0.092
    -323.58     0.056
    -322.55    -0.038
    -321.52     0.002
    -320.49    -0.006
    -319.46     0.002
    -318.43     0.047
    -317.40     0.037
    -316.37    -0.034
    -315.34     0.152
    -314.30     0.058
    -313.27    -0.059
    -312.24     0.080
    -311.21    -0.130
    -310.18    -0.064
    -309.15     0.034
    -308.12    -0.051
    -307.09     0.155
    -306.06     0.007
    -305.03    -0.038
    -304.00     0.107
    -302.97     0.109
    -301.94     0.044
    -300.91    -0.131
    -299.88     0.099
    -298.85    -0.051
    -297.82    -0.064
    -296.79     0.060
    -295.76     0.146
    -294.73    -0.047
    -293.69    -0.067
    -292.66    -0.052
    -291.63     0.023
    -290.60     0.041
    -289.57     0.032
    -288.54     0.034
    -287.51    -0.014
    -286.48     0.098
    -285.45    -0.009
    -284.42     0.108
    -283.39     0.072
    -282.36    -0.027
    -281.33    -0.018
    -280.30     0.006
    -279.27     0.085
    -278.24     0.051
    -277.21     0.030
    -276.18    -0.059
    -275.15     0.080
    -274.12     0.005
    -273.08    -0.016
    -272.05     0.136
    -271.02     0.018
    -269.99     0.039
    -268.96    -0.016
    -267.93     0.046
    -266.90     0.101
    -265.87    -0.073
    -264.84     0.113
    -263.81    -0.068
    -262.78    -0.135
    -261.75    -0.118
    -260.72     0.050
    -259.69     0.109
    -258.66     0.102
    -257.63     0.071
    -256.60     0.087
    -255.57     0.114
    -254.54    -0.030
    -253.50     0.010
    -252.47    -0.075
    -251.44     0.075
    -250.41    -0.026
    -249.38    -0.095
    -248.35    -0.155
    -247.32    -0.011
    -246.29     0.021
    -245.26    -0.054
    -244.23     0.084
    -243.20     0.087
    -242.17     0.096
    -241.14     0.070
    -240.11    -0.015
    -239.08     0.030
    -238.05     0.025
    -237.02     0.114
    -235.99    -0.058
    -234.96    -0.012
    -233.93    -0.120
    -232.89    -0.063
    -231.86    -0.086
    -230.83     0.090
    -229.80    -0.148
    -228.77    -0.059
    -227.74    -0.103
    -226.71     0.039
    -225.68    -0.144
    -224.65    -0.059
    -223.62    -0.045
    -222.59    -0.020
    -221.56     0.036
    -220.53     0.096
    -219.50     0.106
    -218.47     0.085
    -217.44    -0.017
    -216.41     0.024
    -215.38     0.088
    -214.35     0.068
    -213.32     0.013
    -212.28    -0.181
    -211.25    -0.031
    -210.22     0.026
    -209.19    -0.137
    -208.16     0.019
    -207.13    -0.062
    -206.10    -0.052
    -205.07    -0.091
    -204.04     0.007
    -203.01     0.039
    -201.98     0.133
    -200.95     0.107
    -199.92     0.064
    -198.89    -0.216
    -197.86    -0.043
    -196.83     0.029
    -195.80     0.092
    -194.77    -0.111
    -193.74     0.097
    -192.71    -0.133
    -191.67    -0.011
    -190.64    -0.043
    -189.61     0.121
    -188.58    -0.113
    -187.55     0.039
    -186.52    -0.105
    -185.49    -0.153
    -184.46    -0.013
    -183.43    -0.055
    -182.40    -0.094
    -181.37    -0.095
    -180.34     0.014
    -179.31    -0.007
    -178.28    -0.103
    -177.25     0.023
    -176.22     0.002
    -175.19     0.066
    -174.16     0.131
    -173.13    -0.011
    -172.09     0.089
    -171.06    -0.007
    -170.03     0.050
    -169.00     0.073
    -167.97     0.029
    -166.94    -0.060
    -165.91    -0.049
    -164.88     0.143
    -163.85    -0.014
    -162.82     0.055
    -161.79     0.016
    -160.76     0.075
    -159.73     0.017
    -158.70     0.010
    -157.67     0.007
    -156.64     0.001
    -155.61     0.124
    -154.58     0.086
    -153.55     0.082
    -152.52     0.199
    -151.48     0.023
    -150.45     0.072
    -149.42     0.073
    -148.39     0.065
    -147.36     0.098
    -146.33     0.209
    -145.30     0.081
    -144.27     0.096
    -143.24     0.228
    -142.21     0.115
    -141.18     0.064
    -140.15    -0.070
    -139.12    -0.051
    -138.09     0.129
    -137.06     0.325
    -136.03     0.031
    -135.00     0.192
    -133.97     0.084
    -132.94     0.094
    -131.91     0.119
    -130.87     0.428
    -129.84     0.351
    -128.81     0.344
    -127.78     0.379
    -126.75     0.426
    -125.72     0.595
    -124.69     0.685
    -123.66     0.944
    -122.63     1.114
    -121.60     1.218
    -120.57     1.427
    -119.54     1.848
    -118.51     1.934
    -117.48     2.341
    -116.45     2.398
    -115.42     2.863
    -114.39     3.075
    -113.36     3.789
    -112.33     3.971
    -111.29     4.582
    -110.26     4.774
    -109.23     5.275
    -108.20     5.602
    -107.17     5.852
    -106.14     6.415
    -105.11     6.753
    -104.08     7.106
    -103.05     7.385
    -102.02     7.327
    -100.99     7.147
     -99.96     6.958
     -98.93     6.904
     -97.90     6.743
     -96.87     6.711
     -95.84     6.573
     -94.81     6.688
     -93.78     6.744
     -92.75     6.606
     -91.72     6.398
     -90.68     5.989
     -89.65     5.630
     -88.62     5.453
     -87.59     5.138
     -86.56     4.751
     -85.53     4.230
     -84.50     3.790
     -83.47     3.348
     -82.44     3.084
     -81.41     2.734
     -80.38     2.874
     -79.35     2.646
     -78.32     2.797
     -77.29     2.945
     -76.26     3.172
     -75.23     3.692
     -74.20     4.206
     -73.17     5.138
     -72.14     6.496
     -71.11     8.323
     -70.07    11.105
     -69.04    14.576
     -68.01    19.455
     -66.98    26.487
     -65.95    35.226
     -64.92    44.851
     -63.89    53.053
     -62.86    59.255
     -61.83    62.942
     -60.80    65.643
     -59.77    67.260
     -58.74    68.090
     -57.71    67.567
     -56.68    66.063
     -55.65    64.766
     -54.62    63.828
     -53.59    62.264
     -52.56    60.761
     -51.53    59.592
     -50.49    58.864
     -49.46    57.932
     -48.43    56.126
     -47.40    53.365
     -46.37    49.303
     -45.34    45.452
     -44.31    41.157
     -43.28    38.514
     -42.25    40.003
     -41.22    44.910
     -40.19    50.776
     -39.16    55.606
     -38.13    57.805
     -37.10    56.217
     -36.07    55.006
     -35.04    56.221
     -34.01    58.553
     -32.98    61.317
     -31.95    61.459
     -30.92    57.782
     -29.88    49.407
     -28.85    39.021
     -27.82    31.472
     -26.79    27.599
     -25.76    27.984
     -24.73    30.912
     -23.70    34.618
     -22.67    38.900
     -21.64    44.093
     -20.61    50.712
     -19.58    55.873
     -18.55    57.405
     -17.52    52.173
     -16.49    44.142
     -15.46    36.235
     -14.43    30.094
     -13.40    25.225
     -12.37    22.718
     -11.34    22.978
     -10.31    26.694
      -9.27    33.099
      -8.24    41.142
      -7.21    48.329
      -6.18    52.995
      -5.15    56.782
      -4.12    60.336
      -3.09    62.471
      -2.06    62.255
      -1.03    60.637
       0.00    61.327
       1.03    63.328
       2.06    62.823
       3.09    59.810
       4.12    56.041
       5.15    49.922
       6.18    39.412
       7.21    28.320
       8.24    19.714
       9.27    14.657
      10.31    11.560
      11.34     9.532
      12.37     8.648
      13.40     7.644
      14.43     7.080
      15.46     6.514
      16.49     6.299
      17.52     5.538
      18.55     4.619
      19.58     3.566
      20.61     2.823
      21.64     2.072
      22.67     1.574
      23.70     1.188
      24.73     0.881
      25.76     0.838
      26.79     0.583
      27.82     0.259
      28.85     0.360
      29.88     0.388
      30.92     0.164
      31.95     0.309
      32.98     0.179
      34.01    -0.078
      35.04     0.281
      36.07     0.035
      37.10     0.172
      38.13    -0.022
      39.16     0.135
      40.19    -0.041
      41.22     0.026
      42.25    -0.057
      43.28     0.220
      44.31    -0.034
      45.34     0.086
      46.37     0.063
      47.40     0.010
      48.43    -0.027
      49.46     0.090
      50.49    -0.047
      51.53     0.122
      52.56    -0.103
      53.59     0.139
      54.62    -0.054
      55.65     0.074
      56.68     0.046
      57.71     0.106
      58.74    -0.105
      59.77     0.003
      60.80    -0.006
      61.83     0.088
      62.86     0.088
      63.89     0.015
      64.92    -0.088
      65.95    -0.018
      66.98    -0.032
      68.01     0.128
      69.04     0.063
      70.07     0.109
      71.11    -0.005
      72.14     0.106
      73.17     0.006
      74.20    -0.007
      75.23     0.048
      76.26     0.027
      77.29     0.058
      78.32    -0.049
      79.35    -0.038
      80.38     0.026
      81.41     0.015
      82.44     0.012
      83.47     0.055
      84.50    -0.098
      85.53    -0.159
      86.56    -0.061
      87.59     0.141
      88.62    -0.001
      89.65     0.013
      90.68     0.116
      91.72    -0.019
      92.75     0.140
      93.78     0.058
      94.81    -0.076
      95.84    -0.032
      96.87    -0.002
      97.90    -0.081
      98.93     0.030
      99.96     0.125
     100.99     0.050
     102.02     0.065
     103.05    -0.098
     104.08     0.047
     105.11     0.097
     106.14    -0.045
     107.17     0.047
     108.20    -0.092
     109.23    -0.114
     110.26     0.047
     111.29     0.008
     112.33    -0.025
     113.36     0.062
     114.39    -0.084
     115.42     0.082
     116.45     0.068
     117.48    -0.034
     118.51    -0.009
     119.54    -0.020
     120.57    -0.032
     121.60     0.137
     122.63    -0.038
     123.66    -0.021
     124.69     0.039
     125.72     0.115
     126.75    -0.039
     127.78    -0.107
     128.81    -0.007
     129.84     0.022
     130.87    -0.123
     131.91     0.057
     132.94    -0.213
     133.97    -0.075
     135.00     0.122
     136.03    -0.023
     137.06    -0.087
     138.09    -0.019
     139.12     0.121
     140.15     0.018
     141.18    -0.074
     142.21     0.059
     143.24     0.029
     144.27    -0.028
     145.30     0.066
     146.33     0.055
     147.36     0.087
     148.39     0.064
     149.42    -0.054
     150.45    -0.021
     151.48     0.054
     152.52    -0.031
     153.55     0.106
     154.58     0.014
     155.61    -0.100
     156.64    -0.172
     157.67     0.037
     158.70     0.070
     159.73     0.056
     160.76     0.107
     161.79    -0.046
     162.82     0.041
     163.85    -0.026
     164.88    -0.021
     165.91     0.033
     166.94    -0.089
     167.97    -0.016
     169.00    -0.046
     170.03     0.035
     171.06     0.091
     172.09    -0.032
     173.13    -0.079
     174.16    -0.142
     175.19    -0.008
     176.22    -0.052
     177.25     0.154
     178.28    -0.051
     179.31     0.026
     180.34    -0.036
     181.37    -0.081
     182.40     0.009
     183.43     0.034
     184.46     0.035
     185.49     0.057
     186.52     0.013
     187.55    -0.098
     188.58     0.025
     189.61     0.112
     190.64    -0.144
     191.67    -0.124
     192.71     0.010
     193.74     0.009
     194.77    -0.044
     195.80     0.040
     196.83     0.003
     197.86     0.002
     198.89    -0.056
     199.92    -0.141
     200.95    -0.039
     201.98     0.061
     203.01     0.018
     204.04     0.001
     205.07    -0.034
     206.10    -0.067
     207.13    -0.078
     208.16    -0.061
     209.19    -0.017
     210.22    -0.027
     211.25    -0.036
     212.28    -0.050
     213.32     0.081
     214.35     0.065
     215.38    -0.076
     216.41    -0.005
     217.44     0.031
     218.47     0.057
     219.50    -0.079
     220.53     0.117
     221.56    -0.104
     222.59     0.124
     223.62    -0.085
     224.65    -0.009
     225.68    -0.066
     226.71    -0.082
     227.74     0.175
     228.77    -0.008
     229.80     0.043
     230.83     0.179
     231.86     0.046
     232.89     0.079
     233.93    -0.068
     234.96     0.130
     235.99     0.030
     237.02     0.052
     238.05    -0.113
     239.08     0.164
     240.11     0.030
     241.14    -0.022
     242.17    -0.015
     243.20     0.185
     244.23    -0.020
     245.26    -0.069
     246.29    -0.047
     247.32     0.082
     248.35    -0.080
     249.38    -0.244
     250.41    -0.139
     251.44    -0.032
     252.47    -0.173
     253.51     0.059
     254.54    -0.089
     255.57     0.056
     256.60    -0.035
     257.63     0.063
     258.66    -0.074
     259.69     0.102
     260.72    -0.129
     261.75     0.025
     262.78    -0.018
     263.81    -0.036
     264.84    -0.148
     265.87     0.079
     266.90     0.109
     267.93    -0.006
     268.96    -0.045
     269.99     0.040
     271.02    -0.146
     272.05     0.153
     273.08    -0.086
     274.12     0.074
     275.15    -0.065
     276.18     0.128
     277.21     0.071
     278.24     0.042
     279.27     0.019
     280.30     0.065
     281.33     0.085
     282.36    -0.032
     283.39    -0.062
     284.42     0.131
     285.45    -0.036
     286.48    -0.090
     287.51     0.102
     288.54     0.135
     289.57    -0.005
     290.60    -0.058
     291.63     0.116
     292.66    -0.005
     293.69    -0.076
     294.73     0.006
     295.76    -0.030
     296.79     0.077
     297.82     0.105
     298.85    -0.043
     299.88     0.126
     300.91    -0.096
     301.94    -0.028
     302.97     0.097
     304.00     0.048
     305.03     0.108
     306.06    -0.024
     307.09    -0.003
     308.12    -0.036
     309.15     0.071
     310.18     0.061
     311.21    -0.036
     312.24    -0.166
     313.27    -0.067
     314.30     0.026
     315.34     0.110
     316.37     0.006
     317.40     0.153
     318.43     0.112
     319.46    -0.122
     320.49     0.011
     321.52     0.012
     322.55     0.077
     323.58    -0.108
     324.61    -0.017
     325.64     0.005
     326.67     0.083
     327.70     0.032
     328.73     0.038
     329.76     0.088
     330.79     0.030
     331.82     0.164
     332.85    -0.103
     333.88     0.051
     334.92    -0.060
     335.95    -0.075
     336.98    -0.014
     338.01    -0.019
     339.04     0.071
     340.07     0.002
     341.10    -0.223
     342.13    -0.067
     343.16    -0.023
     344.19     0.003
     345.22    -0.055
     346.25    -0.206
     347.28    -0.133
     348.31     0.099
     349.34     0.011
     350.37     0.112
     351.40     0.026
     352.43    -0.030
     353.46     0.035
     354.49     0.100
     355.53     0.051
     356.56    -0.100
     357.59     0.085
     358.62    -0.065
     359.65     0.136
     360.68     0.109
     361.71    -0.171
     362.74     0.095
     363.77    -0.057
     364.80    -0.022
     365.83    -0.043
     366.86    -0.130
     367.89     0.047
     368.92     0.043
     369.95    -0.009
     370.98     0.072
     372.01    -0.112
     373.04    -0.008
     374.07    -0.049
     375.10     0.026
     376.14    -0.091
     377.17     0.047
     378.20    -0.012
     379.23    -0.057
     380.26    -0.009
     381.29     0.162
     382.32     0.067
     383.35    -0.008
     384.38    -0.060
     385.41    -0.076
     386.44    -0.115
     387.47    -0.021
     388.50     0.084
     389.53    -0.013
     390.56    -0.057
     391.59    -0.084
     392.62     0.032
     393.65     0.032
     394.68     0.077
     395.72    -0.027
     396.75    -0.104
     397.78     0.129
     398.81    -0.086
     399.84     0.108
